Standard_Name		
MBH 32X PB14E		
Density(mg/cm^3)	Mass(mg)	Sample_thickness(micron)
10116	190686	15000
Number of elements		
16		
Z	Cert conc(ppm)	Standard_error(ppm)
13	200.8385258	8.992769813
14	29.97589938	0
15	1278.971707	29.97589938
16	699.4376521	29.97589938
25	140.8867271	3.996786584
26	210.8304923	8.992769813
27	46.96224236	1.998393292
28	1029.172545	19.98393292
29	896279.3914	899.2769813
30	1029.172545	29.97589938
33	234.8112118	8.992769813
47	151.8778902	3.996786584
50	96422.47633	399.6786584
51	432.6521477	14.98794969
82	353.7156126	13.98875304
83	1458.827103	29.97589938
		
Notes		
Reference values obtained from MBH certififcate of analysis		
"Sum of certified values was more than 100%, so all elements are rescaled by their relative amount in the sample."		
