Standard_Name			
ML3B-G			
Density(mg/cm^3)	Mass(mg)	Sample_thickness(micron)	
3670		1.771	100
Number of elements			
66		
Z	Cert conc(ppm)	Standard_error(ppm)	
3	4.5	0.4
4	0.6	0.1
5	2.5	0.6
9	70	0
11	17804.5	445.1
12	39742.7	482.1
13	71974.9	1058.5
14	240277.3	2804.8
15	1003.7	109.1
16	1.2	0
17	7.5	0
19	3196.1	33.2
20	75042.8	714.7
21	31.8	1.6
22	12766.1	539.4
23	268	23
24	177	23
25	1316.6	69.7
26	84727.2	777.3
27	41.2	3.5
28	107	9
29	112	10
30	108	14
31	19.6	2.1
32	1.1	1.1
33	0.3	0
34	0.1	0
37	5.8	0.21
38	312	4
39	23.9	0.7
40	122	3
41	8.6	0.22
42	16.7	2.3
47	0.03	0
48	0.1	0
49	0.2	0
50	1.1	0.33
51	0.11	0.05
55	0.14	0.012
56	80.1	2.2
57	9	0.13
58	23.1	0.3
59	3.4	0.06
60	16.7	0.2
62	4.8	0.07
63	1.7	0.02
64	5.3	0.23
65	0.8	0.021
66	4.8	0.07
67	0.9	0.018
68	2.4	0.05
69	0.3	0.007
70	2.1	0.04
71	0.3	0.006
72	3.2	0.08
73	0.6	0.013
74	0.4	0.09
75	0.0007	0
77	0.03	0
78	8.8	8.8
79	0.1	0.082
81	0.008	0
82	1.4	0.07
83	0.006	0.009
90	0.5	0.011
92	0.4	0.018

			
Notes			
Matrix composition not available			
Certified concentrations given for 67 elements (see article Jochum et al.)			
Reference values given for /	
Information values given for 4 elements (< x)			
